File: hauke_function /data_xrd.txt
   0.53   6   8   10   10310  -6
   1.77   8   1   0.0000000e+00   3080  -8
   2.478   7   4   1   3320  -7
   3.046   4   3   7   6810  -4
   4.171   5   6   7   6960  -5
   5.208   1   2   7   6910  -1
   6.359   5   5   9   9030  -5
   7.629   3   5   9   9370  -3
   8.872   4   4   10   10200  -4
   10.405   4   10   6   6070  -4
   11.665   2   5   10   9740  -2
   13.337   5   6   12   12470  -5
   17.931   2   4   10   9640  -2
   18.571   3   6   8   8170  -3
   19.848   6   3   10   9630  -6
   21.561   1   4   5   5130  -1
   23.088   7   8   4   4300  -7
   24.473   4   7   6   7340  -4
   25.758   5   5   10   10490  -5
   27.126   5   7   8   7980  -5
   28.399   2   4   6   6230  -2
   29.796   5   4   8   8490  -5
   31.043   10   7   0.0000000e+00   3000  -10
   32.333   5   2   9   9060  -5
   34.454   5   7   8   7610  -5
   35.706   7   6   8   7780  -7
   36.904   2   3   14   14130  -2
   38.474   6   6   7   6660  -6
   39.767   6   6   7   7540  -6
   41.074   10   6   0.0000000e+00   3680  -10
   46.919   7   4   0.0000000e+00   2810  -7
   49.79   2   3   5   4550  -2
   51.207   1   1   3   3310  -1
   54.965   7   8   0.0000000e+00   2910  -7
   61.355   7   1   0.0000000e+00   3410  -7
   62.655   7   7   0.0000000e+00   3280  -7
   63.947   5   7   0.0000000e+00   3820  -5
   66.957   9   4   0.0000000e+00   3450  -9
   68.237   9   2   0.0000000e+00   3410  -9
   69.155   9   7   0.0000000e+00   3410  -9
   70.435   5   5   0.0000000e+00   3330  -5
   71.646   4   3   0.0000000e+00   2710  -4
   72.449   8   8   5   5250  -8
   73.8   4   4   0.0000000e+00   2848  -4
   75.075   8   10   7   7490  -8
   76.36   4   6   7   6600  -4
   77.77   9   7   0.0000000e+00   3448  -9
   80.73   10   5   3   3151  -10
   81.95   9   2   0.0000000e+00   2910  -9
   83.28   6   2   0.0000000e+00   2990  -6
   84.56   5   8   0.0000000e+00   2910  -5
   85.84   6   5   0.0000000e+00   2910  -6
   87.869   5   3   6   6070  -5
   89.15   6   2   0.0000000e+00   2820  -6
   90.869   4   4   0.0000000e+00   3200  -4
   92.148   7   1   0.0000000e+00   3010  -7
   94.616   7   1   0.0000000e+00   3040  -7
   95.61   7   1   0.0000000e+00   3500  -7
   96.451   8   2   0.0000000e+00   3100  -8
   97.731   9   1   0.0000000e+00   3200  -9
   98.891   8   5   0.0000000e+00   3200  -8
   100.166   9   3   0.0000000e+00   3010  -9
   101.729   7   4   0.0000000e+00   2950  -7
   104.909   5   5   0.0000000e+00   2600  -5
   106.194   5   5   0.0000000e+00   2500  -5
   107.719   6   1   0.0000000e+00   3010  -6
   108.939   6   5   0.0000000e+00   3100  -6
   110.037   7   6   0.0000000e+00   3010  -7
   111.775   6   7   1   3600  -6
   113.58   8   4   0.0000000e+00   3210  -8
   114.27   7   1   0.0000000e+00   3060  -7
   114.91   5   2   0.0000000e+00   2860  -5
   116.19   5   4   5   5120  -5
   117.465   5   4   4   4140  -5
   118.254   5   6   6   5570  -5
   119.624   4   6   5   5320  -4
   120.612   3   4   4   4320  -3
   121.989   3   3   4   4320  -3
   123.26   7   5   2   3500  -7
   124.55   8   3   0.0000000e+00   3070  -8
   125.83   9   8   0.0000000e+00   3170  -9
   127.098   6   7   1   3710  -6
   128.453   8   1   1   3010  -8
   129.733   6   5   5   5080  -6
   131.008   0.0000000e+00   8   6   6760   0.0000000e+00
   132.293   1   7   5   5760  -1
   133.786   7   7   6   6580  -7
   134.966   1   10   8   8410  -1
   136.177   5   8   6   6150  -5
   137.457   3   8   5   5070  -3
   138.677   6   7   7   7820  -6
   139.957   7   7   7   7300  -7
   141.26   4   6   5   5890  -4
   142.526   9   3   7   7500  -9
   144.118   9   5   5   5400  -9
   146.406   7   6   9   9060  -7
   147.676   9   5   3   3960  -9
   149.276   9   1   0.0000000e+00   2940  -9
   150.548   5   3   0.0000000e+00   2150  -5
   151.688   1   7   5   5120  -1
   152.968   4   4   7   7160  -4
   154.06   5   5   7   7610  -5
   154.947   8   8   4   4240  -8
   157.202   9   3   0.0000000e+00   3340  -9
   158.949   8   1   0.0000000e+00   2950  -8
   160.239   8   3   0.0000000e+00   3080  -8
   162.42   1   7   2   3230  -1
   163.695   9   2   1   3300  -9
   165.481   10   0.0000000e+00   0.0000000e+00   3060  -10
   166.77   9   2   0.0000000e+00   2900  -9
   167.61   10   4   0.0000000e+00   2890  -10
   168.825   7   2   0.0000000e+00   3260  -7
   169.686   8   1   0.0000000e+00   3070  -8
   170.966   9   3   0.0000000e+00   3230  -9
   172.245   8   2   0.0000000e+00   3360  -8
   175.315   7   6   5   5450  -7
   176.907   2   7   5   5910  -2
   178.179   0.0000000e+00   7   6   6050   0.0000000e+00
   180.099   3   8   7   7150  -3
   181.244   6   8   4   4280  -6
   182.684   8   6   0.0000000e+00   3160  -8
   183.958   7   6   4   4680  -7
   185.607   7   7   0.0000000e+00   2890  -7
   186.885   8   6   0.0000000e+00   2940  -8
   188.013   7   6   0.0000000e+00   2840  -7
   189.293   7   6   0.0000000e+00   3070  -7
   190.256   7   7   0.0000000e+00   2830  -7
   191.534   8   5   0.0000000e+00   3140  -8
   192.812   8   8   0.0000000e+00   2830  -8
   194.41   7   6   0.0000000e+00   2910  -7
   196.196   6   5   0.0000000e+00   3380  -6
   198.131   8   4   0.0000000e+00   3200  -8
   199.411   4   6   0.0000000e+00   3200  -4
   200.356   3   6   0.0000000e+00   3120  -3
   201.636   2   4   1   3520  -2
   202.749   8   5   0.0000000e+00   3190  -8
   203.705   8   7   0.0000000e+00   3370  -8
   205.204   7   6   0.0000000e+00   2800  -7
   206.164   7   6   0.0000000e+00   2980  -7
   206.622   8   4   0.0000000e+00   2860  -8
   207.304   9   7   0.0000000e+00   2860  -9
   207.949   8   5   0.0000000e+00   2870  -8
   208.604   9   3   0.0000000e+00   3060  -9
   210.057   9   1   0.0000000e+00   3310  -9
   210.762   9   2   0.0000000e+00   2930  -9
   212.768   7   5   0.0000000e+00   3270  -7
   213.728   9   6   0.0000000e+00   3010  -9
   214.583   9   9   1   3190  -9
   215.982   7   6   0.0000000e+00   3220  -7
   217.251   10   2   0.0000000e+00   3210  -10
   218.493   6   6   0.0000000e+00   2800  -6
   219.769   6   6   0.0000000e+00   2800  -6
   220.906   4   7   6   6010  -4
   222.412   1   8   7   7250  -1
   223.694   2   8   8   8430  -2
   224.654   3   8   5   5980  -3
   225.747   5   7   5   5990  -5
   227.113   2   7   5   5340  -2
   228.698   0.0000000e+00   6   5   5730   0.0000000e+00
   229.722   7   6   0.0000000e+00   2640  -7
   230.77   6   8   0.0000000e+00   2910  -6
   231.607   7   6   1   3070  -7
   232.967   10   6   0.0000000e+00   2890  -10
   234.345   0.0000000e+00   0.0000000e+00   6   6650  -6
   235.751   1   8   5   5910  -1
   237.026   1   9   7   7490  -1
   238.298   6   8   7   7790  -6
   239.578   7   6   5   5020  -7
   240.861   1   8   5   5010  -1
   242.141   1   7   6   6660  -1
   243.102   5   6   9   9580  -5
   243.898   9   7   8   8140  -9
   244.934   10   2   9   9000  -10
   246.209   9   2   4   4220  -9
   247.494   8   3   1   3190  -8
   248.694   8   7   3   3750  -8
   249.978   7   5   0.0000000e+00   3040  -7
   251.258   7   8   0.0000000e+00   3040  -7
   252.426   4   4   0.0000000e+00   2610  -4
   253.708   6   6   0.0000000e+00   2860  -6
   255.89   8   8   0.0000000e+00   2950  -8
   256.533   8   6   0.0000000e+00   3080  -8
   257.804   8   4   0.0000000e+00   3010  -8
   259.814   7   8   0.0000000e+00   2790  -7
   261.21   7   8   0.0000000e+00   2900  -7
   262.94   1   6   1   2520  -1
   263.727   2   7   0.0000000e+00   2860  -2
   265.201   5   7   0.0000000e+00   2880  -5
   267.041   8   6   0.0000000e+00   3090  -8
   268.323   9   6   0.0000000e+00   3020  -9
   269.486   7   6   0.0000000e+00   3210  -7
   270.768   6   7   0.0000000e+00   2780  -6
   272.264   8   4   0.0000000e+00   3020  -8
   273.461   9   2   0.0000000e+00   3070  -9
   274.426   8   1   0.0000000e+00   2900  -8
   275.929   10   1   0.0000000e+00   3020  -10
   277.2   5   6   1   3240  -5
   280.369   7   5   1   3100  -7
   281.642   9   1   0.0000000e+00   2840  -9
   282.434   5   6   0.0000000e+00   2900  -5
   283.344   6   4   0.0000000e+00   2950  -6
   284.624   8   2   0.0000000e+00   3070  -8
   285.898   6   5   0.0000000e+00   3010  -6
   287.183   8   6   0.0000000e+00   3310  -8
   288.453   9   4   0.0000000e+00   3010  -9
   289.733   8   6   0.0000000e+00   3010  -8
   291.008   10   7   0.0000000e+00   3010  -10
   292.293   7   9   0.0000000e+00   3010  -7